LIST170427A-t15076-5K-35Deg.txt**Raman_Information**
Laser 633 nm
Power 10 perc
Grating 2400 cm-1
Objectif 100 x
Time 60 s
N._Acqu. 30 x
**Sample_Information**
Sample_ID t15076
Sample NdNiO3
Substr NdGaO3
Sam._Inf. 30nm
Sub._Inf. 111
Dist         0.0     1.0     2.0     3.0     4.0     5.0     6.0     7.0     8.0     9.0    10.0    11.0    12.0    13.0    14.0    15.0    16.0    17.0    18.0    19.0    20.0    21.0    22.0    23.0    24.0    25.0    26.0    27.0    28.0    29.0 
    0.0  0.8102  0.7509  0.1828  1.0259  3.7863   1.403  1.1645    10.3  4.7434  0.7021 16.4622  3.2072  1.3704  1.5915  6.9907  2.9339 12.1002  2.0866  2.0222  1.9633    11.4 21.4015  0.9875   1.794 16.8164   12.57  1.7801     2.0  1.3983   0.011 
    1.0  0.3888  0.7096  0.1831  0.9109  3.5901  1.4339  1.1093   10.35  4.3897  0.7861 16.4622  3.1956  1.3636  1.6132  8.2285  2.7945 13.3039   2.255  2.0077  1.9181    11.4 21.6307  0.2642  1.7878 16.8164   12.57  1.7903     2.0  1.4661   0.011 
    2.0  1.1669  0.6805  0.2644  0.9974  3.7426  1.4559   1.053    10.4  4.5086  0.9777 16.4622   2.854  1.4373  1.6276  5.7874  3.1389  11.156  2.1083  2.0342   1.957    11.4 18.9732  0.2691  1.8833 16.8164   12.57  1.9727     2.0  1.2665     0.0 
    3.0  0.9749  0.6639  0.3788  1.1267  4.5344  1.4987  1.0109    10.6  5.6087   0.982 16.4622  3.3489  1.4728  1.7592  3.7362  3.1175  12.627  2.3009  2.0368  1.9982    11.4  20.651  0.2703  1.8162 16.8164   12.57  2.3127     2.0  1.2295   0.011 
    4.0   0.967  0.8955  0.2635  1.0304  4.0138  1.5028  1.1736    10.8  4.6948  1.0062 16.4622  2.5305  1.5268  1.9097  5.9084  3.2463 11.2855  1.9651  2.1418  1.9892    11.4 20.8979  0.2613  1.8364 16.8164   12.57   2.541     2.0  1.3261   0.011 
    5.0  1.0744  1.0117  0.2625  1.1037  4.2548  1.5819  1.2558    11.0  5.1558  1.0464 16.4622  1.3864  1.6546  2.1627  9.2478   3.271 11.9793  1.7224  2.1616  2.0923    11.4 17.4118  0.2444  2.0265 16.8164   12.57  3.3408     2.0  1.3694   0.011 
    6.0   0.913  0.8083  0.2955  1.0086  4.4065  1.6163  1.0853    11.1  4.5152  1.0081 16.4622  2.9966  1.7244  2.2792  5.9184  3.3489 12.6333  2.0228  2.2164  2.1293    11.4 14.4274  0.2661  1.9369 16.8164   12.57  3.8963     2.0  1.4998   0.011 
    7.0  0.9786  0.8077  0.2951  1.2854  4.4511  1.6968  1.0748    11.1  5.0292   0.966 16.4622  3.1404  1.7858  2.3947   5.844  3.2726 12.8537  1.9885  2.2299  2.0671    11.4    11.0  0.2659  1.9287 16.8164   12.57  3.8319     2.0  1.5545   0.011 
    8.0  1.1272  1.0304  0.5621  1.1996  4.2408  1.7712  1.4113    11.2  4.6819  0.8961 16.4622  3.6551  2.0347  2.7083   9.282  3.5393 11.6268  2.1954  2.2527  2.2552    11.4 12.5787  0.5656  1.9978 16.8164   12.57  3.3698     2.0  1.4318   0.011 
    9.0  1.2631  1.0451  0.5534  1.2471   3.595  1.8013    1.49    11.3   4.586  1.3588 16.4622  3.4229  2.0718   2.998  8.5058  3.9478 11.7783  1.5673  2.4507  2.5831    11.4 11.8039  0.5864  2.1893 16.8164   12.57  5.0964     2.0   1.776   0.011 
   10.0  1.2868  1.0348  0.6603    1.29  4.2993  1.9299  1.6601    11.4  5.6986  1.2222 16.4622  3.5989  2.1607  3.0626  8.4744  3.7256 12.7213  2.2745  2.4647   2.414    11.4  13.873  0.5766  2.2617 16.8164   12.57  5.0789     2.0  1.9501   0.011 
   11.0     1.0  1.0227  0.2069  1.3284   4.253  2.0283  1.5793    11.5  5.4474  1.3925 16.4622     3.1  2.1959  3.1665 14.7371  3.9141    13.0  3.9268  2.5915  2.4786    11.4 16.5737  0.8938  2.2556 16.8164 19.6978  6.1294     2.0  1.6046   0.011 
   12.0     2.0  1.0251   0.307  1.3238  4.4643  2.0569  1.5202    11.6  5.4986  1.3703 16.4622  2.6385  2.2488  3.1819 12.5779  3.8717   13.39   2.846  2.5708  2.5044    11.4 15.1682   0.883  2.3039 16.8164 12.7553  5.4434     2.0  1.6741   0.011 
   13.0     2.0   1.103  0.3003  1.2313  5.0855  2.1446  1.3272    11.7  5.4328  1.4195 16.4622  2.7548   2.551  3.4695   7.928  3.9626    13.4  1.8356  2.4908  2.5007    11.4 24.0343  0.6894  2.0634 16.8164   12.57  5.4667     2.0  1.9617   0.011 
   14.0     2.0  1.1658   0.328  1.1465   5.075  2.1326  1.7274    11.7  5.3146  1.6235 16.4622  3.8208  2.9667  3.7273   9.899   4.888 13.8473  1.9936  2.6597  2.7346    11.6 13.5056  0.0629     2.6 16.8164   12.67     5.4     2.0  2.1781   0.011 
   15.0     2.0  1.1617  0.3578  1.2385  4.8025  2.3333  1.6526 10.9143  5.4815  1.5936 16.4622  3.5841  2.7186  3.5781  7.4912  4.0753 13.4362  3.1221  2.6888  2.5675    11.6 13.5056  0.5942     2.6 16.8164   12.67  5.3791     2.0  2.2113   0.011 
   16.0  0.1524  1.1238  0.8245  1.2803  5.3399  2.3357  1.7721 10.4086  5.4842  1.7159 16.4622  4.1553  3.1187  3.9055 10.3419  4.7944    13.6  2.4444  2.7112  2.6324    11.8 13.5056  0.7071     2.6 16.8164   12.77  5.6782     2.0  2.3716   0.011 
   17.0     1.0  1.1502  0.7122  1.4366  5.3144  2.6022  1.8824 12.1707  5.3694  1.8241 16.4622   3.935  3.1818  4.2308  9.7018  5.0474    13.8  2.4638  2.7923  2.7926    12.0 13.5056  0.5004     2.7 16.8164   12.87  5.6171     2.0  2.2436   0.011 
   18.0     1.0  1.2077  0.6786  1.4042   7.426  2.7646  1.9868 11.2871   6.005  1.8993 16.4622  5.4905  3.4127  4.5182  9.7018  5.1935    14.0  3.0216  2.9514  3.1367    12.2 13.5056  0.7845     2.9 16.8164   12.97  5.8059     2.0   2.458   0.011 
   19.0     1.0   1.351  0.6903  1.5256  6.2693  3.0347  1.9757 12.2003  6.2449   2.142 16.4622   4.381  4.1188   4.704  9.7018  5.1902    14.1  2.1191  3.0412  3.1561    12.4 13.5056  0.8141     3.0 16.8164   13.07  6.2934     2.0  2.7682   0.011 
   20.0     1.0  1.5227  0.6396  1.5891  9.4132  3.1548  2.3611    13.0  6.7122  2.2269 16.4622  6.4596  4.2529  5.2296  9.7018  5.6325    14.6    3.33  3.1268  3.3323 12.6796 13.5056     0.5     3.1 16.8164   13.17  6.4575  1.8468  3.2114   0.011 
   21.0     3.0    1.59  0.6887  1.5619 11.5389  3.3809   2.523    14.0  7.3348  2.4017 16.4622  7.6953  4.6307  5.5144     9.9  6.3117 16.1904  5.5407  3.1854  3.3982    12.8 13.5056 26.1289     3.2 16.8164   13.27  6.0735  2.1689  3.1866   0.011 
   22.0     3.0  1.6218  1.0053  1.8514 11.1841  3.5568  2.5548    15.0  7.3332   2.535 16.4622  9.0035  4.7348  5.9859    10.2  6.4428 14.6678  4.3183  3.3712  3.6611    13.0 13.5056 24.3941     3.3 16.8164 13.2998  5.9941    2.35  3.4143   0.011 
   23.0     1.0   1.665  0.9992  1.8797    12.0  3.8119  2.3787    15.0  7.2544  2.6185 16.4622  7.9091     4.8  5.7457 11.6164  6.2148 12.1206  1.9555  3.3373  4.3564 13.2814 13.5056 16.7731     3.4 16.8164   13.45  6.0206     2.4     3.6   0.011 
   24.0     3.0  1.6959  1.0836  1.6113 14.7255  3.8554  3.0047   15.94  8.2306  2.7318 16.4622 11.5437  4.7343  6.7942    10.8  7.2932 12.3438  2.2758  3.5594  3.7042    13.2 13.5056 33.0271     3.5 16.8164 13.6366  6.0919    2.45  3.7239   0.011 
   25.0     3.0  1.6954   1.319  1.8504    12.0  4.0126  3.0881 13.1477  9.5611  2.8999 12.2338 12.2614  5.0405   6.544    11.0  7.2054 16.1764  4.4835  3.6099  3.9272    13.6 13.5056 17.5164     3.6 16.8164    13.7  5.9971    2.55  3.8805   0.011 
   26.0     1.0  1.7458  1.2965  1.8874    12.0  4.2833  3.2135 14.4555  9.4215  3.1028 10.4153 11.7379  5.5627  6.6538    11.2  7.1624 17.0268  5.0769  3.7229    3.75    13.8 13.5056  22.573     3.7 16.8164    13.8  5.9583    2.55     3.9   0.011 
   27.0     3.0  1.8164     1.3  1.9968    12.0  4.5122   3.346 11.5352 10.4253  3.2726 13.3903 13.6495   5.432   7.228    11.4  9.2462 18.8518  5.4969  3.8345  4.2281    14.0 13.5056 37.5936     3.8 16.8164    13.9  5.6127     2.6  3.9375   0.011 
   28.0     3.0  1.8328  1.1673  2.2536    12.0   4.542  3.7423  8.7435 10.7901  3.4523 16.4622 14.6258  5.0913  7.3212    11.6  9.9554    16.2  5.3698  3.9945     3.9    14.2 13.5056 22.1866     3.9 16.8164    14.0  5.9423     2.6  4.2921   0.011 
   29.0     3.0  1.8909  3.4994   2.107    12.0  4.7058  3.8626 12.2093 11.7301  3.5278 16.4622 16.7411  5.2758  7.4896    11.8  9.6615 17.2392   5.495  4.1232    3.95    14.4 13.5056     6.0     4.0 16.8164    14.1  6.0283     2.6  4.0268   0.011 
   30.0 12.0991  2.0945  2.1973  1.7939    12.0  5.0674  4.1244  12.656 12.5881  3.7448 16.4622 15.9818   5.714   7.739    12.0 10.0508    16.4  5.8923  4.0188  6.5327 14.5663 13.5056  5.5627     4.1 16.8164    14.2   6.169     2.6  4.0079   0.011 
   31.0  3.6318  2.1709  1.9122  2.1469    12.0  5.3503  4.3413 10.5431 13.6885  3.8906 16.4622 15.7022  6.0258  8.1176    12.0 10.1921    16.4  5.5264  4.1962  7.1274 14.4003 13.5056  6.2124  4.0687 16.8164    14.2   6.018     2.6  4.3747   0.011 
   32.0  3.8707  2.2201  2.3298   2.068    12.0  5.4659  4.4146 10.4597 16.2644  4.0494 16.4622 14.8702  5.2948  7.9533    12.0 10.5771    16.4  6.0458  4.1502  7.3258 14.5113 13.5056  6.4597  4.0871 16.8164    14.2  6.1708  2.6049  4.5566   0.011 
   33.0  2.8964  2.3095  2.4463  2.1223    12.0  5.5914  4.5955  9.6432 16.3311  4.0955 16.4622 14.3471  5.6132  7.9537    12.0 11.1805    16.4  7.2203  4.1933  6.3676 14.3665 13.5056  5.9775  4.2274 16.8164    14.2  5.9106  2.6392  4.0877   0.011 
   34.0  2.9859  2.3045  2.3354  2.0378    12.0  5.8365  4.7899  9.1403 18.2478  4.1867 16.4622  13.321  6.2463  7.5699    12.0 10.8181    16.4  8.0327  4.2341  7.6139  14.618 13.5056  5.6251  4.7073 16.8164    14.2  6.0734   2.566  4.1643   0.011 
   35.0  3.0058  2.3641  2.5426  2.2137    12.0  5.9244  5.1813  4.4632 17.1319  4.5034 16.4622 13.0758  5.6005  7.9693    12.0 11.3921    16.4  6.2274  4.4534  7.7161 14.4145 13.5056  4.8438  4.5474 16.8164    14.2  5.9829  2.6394  4.6237   0.011 
   36.0   3.318  2.3669  2.1061  2.2144    12.0  6.0022  4.9555 10.4165 17.7347  4.5605 16.4622 12.7845  6.5076  8.7421    12.0 11.3834    16.4  6.5555  4.6047  7.6769 14.8705 13.5056  4.6664  4.4313 16.8164    14.2   6.239  2.5367  4.1964   0.011 
   37.0  2.7448  2.4237   2.428  2.2143    12.0  6.2451  5.2318  8.5823 16.2028  4.6867 16.4622 13.5423  5.6091  9.0709    12.0 11.7416    16.4  6.8348  4.6826  8.0212 13.9117 13.5056  4.5473  4.8548 16.8164    14.2  6.3589  3.0002  4.6073   0.011 
   38.0  5.4213  2.3215  2.0376  2.1353    12.0  6.4127   5.464 10.0933 15.0134  4.6773 16.4622 15.7074  7.0975   8.614    12.0 12.3073    16.4  8.5608  4.7565  7.7662    15.2 13.5056  4.1321  4.5851 16.8164  12.697  6.3712  2.0912  4.7771   0.011 
   39.0  3.1205   2.408  2.3137   2.195    12.0  6.3111  5.4686 14.2151 14.2244  4.8991 16.4622 14.5733  6.5457  8.0852 11.6652  12.565    16.4  8.8723  4.8221   8.043    14.6 13.5056  4.3678  4.6191 16.8164 12.7632  5.9968  2.2208     4.8   0.011 
   40.0  6.3965  2.4495  1.7582  1.8857    12.0  6.6874  5.7409    14.0    13.5  5.1761 16.4622 14.4254  7.2547  8.1959    11.9 13.6327    16.4 13.1281  4.6871   7.763    14.6 13.5056  3.7341  5.0363 16.8164    14.2   7.176  1.9391     4.9     0.0 
   41.0  5.2204  2.4545  2.0653  2.0291    12.0  6.8478  5.9612    14.0    13.3  5.1674 16.4622 14.9776  7.5341  8.3781 16.9744  12.801    16.4 13.4598  4.7727  7.7566    14.6 13.5056  4.1259  5.5415 16.8164 14.1635  8.9072  1.8449    4.95     0.0 
   42.0  9.3543  2.4968   2.409  2.1748    12.0  7.1349  6.1109 14.0485 12.4853  5.4988 16.4622  16.467  7.6328  8.0209    14.0 14.2347    16.4 16.0119  4.8956  7.8362    14.6 13.5056  3.9029  6.1541 16.8164 14.4449  7.7973  1.7538     5.0   0.011 
   43.0  5.6704  2.5218  1.9581  2.1359    12.0  7.2179  5.9814    14.0 12.5959  5.5524 16.4622 14.0857  7.6824  8.2835    15.0  14.078    16.4 14.9867  5.1581  8.0391    14.6 13.5056  4.4444  6.8972 16.8164 12.0711  7.7687  2.2757    5.05   0.011 
   44.0  4.9815   2.566   2.321  2.1797    12.0   7.249  6.2604    14.0  9.9686  5.8973 16.4622 15.1279  7.1252  8.2276 11.1569  14.552    16.4 13.1296  5.0513  7.7378    14.6 13.5056  4.7136  5.8255 16.8164  3.2688  7.0296  2.1817     5.1   0.011 
